#  Fermi level (eV):  -9.672
#  Charge transfer :  -0.594
#    Electron counts for each orbital momentum:
#       0      1.894
#       1      4.694
#       2      0.006
#       3      0.000
#  Number of atoms in cluster:   0
#  Lorentzian broadening with HWHH     0.1000 eV
# -----------------------------------------------------------------------
#      e        sDOS           pDOS          dDOS          fDOS    @#
   -30.0000  4.109802E-03  6.357740E-04  1.433568E-04  8.363988E-05
   -29.4000  5.690455E-03  6.612948E-04  1.398334E-04  8.184945E-05
   -28.8000  8.493315E-03  6.965637E-04  1.391567E-04  8.133742E-05
   -28.2000  1.412277E-02  7.395861E-04  1.400021E-04  8.149029E-05
   -27.6000  2.812978E-02  7.901176E-04  1.417935E-04  8.203931E-05
   -27.0000  8.169349E-02  8.497857E-04  1.443499E-04  8.288759E-05
   -26.4000  9.680401E-01  9.590909E-04  1.500101E-04  8.508923E-05
   -25.8000  4.905955E-01  1.002117E-03  1.518643E-04  8.531601E-05
   -25.2000  6.639924E-02  1.075621E-03  1.538784E-04  8.610762E-05
   -24.6000  2.487843E-02  1.173390E-03  1.575798E-04  8.735685E-05
   -24.0000  1.293264E-02  1.287861E-03  1.616930E-04  8.872132E-05
   -23.4000  7.918207E-03  1.421732E-03  1.661378E-04  9.017293E-05
   -22.8000  5.351041E-03  1.579348E-03  1.709130E-04  9.170830E-05
   -22.2000  3.864007E-03  1.766560E-03  1.760181E-04  9.331737E-05
   -21.6000  2.926933E-03  1.991340E-03  1.814875E-04  9.500927E-05
   -21.0000  2.299157E-03  2.264495E-03  1.873311E-04  9.677396E-05
   -20.4000  1.858801E-03  2.601368E-03  1.936379E-04  9.864946E-05
   -19.8000  1.538587E-03  3.023404E-03  2.003729E-04  1.005881E-04
   -19.2000  1.299204E-03  3.562808E-03  2.076633E-04  1.026435E-04
   -18.6000  1.116236E-03  4.267662E-03  2.154530E-04  1.047444E-04
   -18.0000  9.743804E-04  5.216906E-03  2.241848E-04  1.071196E-04
   -17.4000  8.630359E-04  6.535902E-03  2.333923E-04  1.094236E-04
   -16.8000  7.752417E-04  8.444508E-03  2.424591E-04  1.112286E-04
   -16.2000  7.087884E-04  1.141885E-02  2.557640E-04  1.150092E-04
   -15.6000  6.867663E-04  1.746388E-02  3.478746E-04  1.642128E-04
   -15.0000  5.851655E-03  2.622227E-01  1.825416E-02  2.675779E-03
   -14.4000  6.381366E-04  4.715819E-02  3.003878E-04  1.225387E-04
   -13.8000  8.255350E-04  1.288309E-01  3.502543E-04  1.355273E-04
   -13.2000  6.305503E-03  1.715733E+00  9.574378E-04  2.771328E-04
   -12.6000  3.715091E-03  1.798113E+00  1.124196E-03  2.048367E-04
   -12.0000  1.008928E-03  3.727025E+00  7.496608E-04  2.695753E-04
   -11.4000  6.445486E-04  1.911789E-01  4.458943E-04  1.505739E-04
   -10.8000  7.058700E-04  6.514918E-02  4.663915E-04  1.510494E-04
   -10.2000  1.308075E-03  3.476329E-02  5.169876E-04  1.562565E-04
    -9.6000  5.443774E-03  2.918355E-02  6.032986E-04  1.646974E-04
    -9.0000  1.097265E-02  4.167924E-02  7.964082E-04  1.825076E-04
    -8.4000  1.531828E-02  6.305835E-02  1.402139E-03  2.282326E-04
    -7.8000  2.253004E-02  1.106626E-01  6.617903E-03  3.945057E-04
    -7.2000  1.952681E-02  1.914495E-01  1.721916E-02  1.057486E-03
    -6.6000  6.378087E-03  1.551352E-01  7.512121E-03  1.075831E-03
    -6.0000  1.789708E-03  1.788802E-02  1.670820E-03  2.802391E-04
    -5.4000  2.665295E-03  9.885960E-03  1.733806E-03  2.563170E-04
    -4.8000  1.495464E-02  1.468473E-02  4.673366E-03  3.451725E-04
    -4.2000  3.523704E-02  3.490141E-02  1.111752E-02  6.829811E-04
    -3.6000  5.394046E-02  7.673674E-02  2.154551E-02  1.377052E-03
    -3.0000  3.172028E-02  1.567069E-01  2.149776E-02  1.329407E-03
    -2.4000  1.206662E-02  1.845603E-01  3.261129E-02  1.319248E-03
    -1.8000  1.392454E-02  1.400729E-01  5.179724E-02  2.124909E-03
    -1.2000  1.272396E-02  1.243176E-01  1.014053E-01  4.293559E-03
    -0.6000  7.664067E-03  1.086835E-01  6.396105E-02  5.356206E-03
    -0.0000  2.516126E-03  4.356380E-02  3.066578E-02  3.076258E-03
     0.6000  7.669005E-03  2.463926E-02  3.465093E-02  3.424002E-03
     1.2000  1.322423E-02  1.940053E-02  4.704919E-02  4.405484E-03
     1.8000  1.670134E-02  2.434155E-02  6.303627E-02  6.574935E-03
     2.4000  4.459214E-02  4.630904E-02  8.790583E-02  1.189244E-02
     3.0000  4.711456E-02  1.021710E-01  1.006098E-01  1.729722E-02
     3.6000  6.143110E-02  1.195209E-01  9.540023E-02  2.024295E-02
     4.2000  2.833234E-02  7.079070E-02  5.903408E-02  1.240863E-02
     4.8000  3.343689E-02  1.069131E-01  5.750884E-02  1.446085E-02
     5.4000  1.671556E-02  9.246253E-02  5.782195E-02  1.345108E-02
     6.0000  1.724613E-02  1.393743E-01  8.319198E-02  1.251085E-02
     6.6000  9.960887E-03  1.050292E-01  1.310474E-01  1.099838E-02
     7.2000  9.975405E-03  4.724471E-02  1.029397E-01  6.226071E-03
     7.8000  1.710415E-02  4.405134E-02  9.517864E-02  7.748693E-03
     8.4000  2.429211E-02  8.346841E-02  1.556559E-01  1.106836E-02
     9.0000  1.717800E-02  6.511995E-02  1.715945E-01  1.057533E-02
     9.6000  2.832768E-02  6.564477E-02  1.780649E-01  1.913001E-02
    10.2000  3.544476E-02  1.014662E-01  1.949749E-01  2.531981E-02
    10.8000  2.859061E-02  2.297661E-01  2.063438E-01  3.434778E-02
    11.4000  1.893224E-02  1.351457E-01  1.619537E-01  3.190740E-02
    12.0000  1.461092E-02  1.073254E-01  1.402617E-01  3.523349E-02
    12.6000  1.622796E-02  9.889049E-02  1.433153E-01  3.821454E-02
    13.2000  1.563021E-02  6.764672E-02  1.338771E-01  3.967694E-02
    13.8000  1.105632E-02  4.028496E-02  1.024151E-01  3.613019E-02
    14.4000  1.107821E-02  3.753077E-02  1.001373E-01  3.816470E-02
    15.0000  1.041688E-02  3.497001E-02  1.121648E-01  4.716910E-02
    15.6000  1.178465E-02  3.229284E-02  9.990029E-02  4.791238E-02
    16.2000  1.379721E-02  3.460224E-02  1.222502E-01  5.905996E-02
    16.8000  1.424367E-02  3.646507E-02  7.317511E-02  5.379141E-02
    17.4000  1.623022E-02  3.895941E-02  1.112072E-01  8.562355E-02
    18.0000  1.245234E-02  3.907176E-02  8.420800E-02  9.366330E-02
    18.6000  1.212774E-02  4.781240E-02  9.385886E-02  8.839245E-02
    19.2000  1.202608E-02  5.666972E-02  1.397180E-01  7.748811E-02
    19.8000  1.076849E-02  4.123500E-02  1.080872E-01  7.063845E-02
    20.4000  1.021686E-02  4.317268E-02  1.232033E-01  7.169037E-02
    21.0000  6.796785E-03  3.315509E-02  1.166431E-01  6.039787E-02
    21.6000  5.342864E-03  2.745572E-02  1.018219E-01  6.638911E-02
    22.2000  7.017326E-03  2.703231E-02  1.172545E-01  6.857187E-02
    22.8000  7.883268E-03  2.855965E-02  9.600605E-02  6.209153E-02
    23.4000  6.264081E-03  1.925001E-02  7.907278E-02  5.087426E-02
    24.0000  1.427766E-02  2.704386E-02  9.445018E-02  5.590122E-02
    24.6000  2.235349E-02  8.167633E-02  1.859406E-01  5.058053E-02
    25.2000  1.971264E-02  6.185052E-02  1.813068E-01  5.508860E-02
    25.8000  2.363633E-02  6.080541E-02  1.353377E-01  5.583136E-02
    26.4000  5.662582E-02  6.305066E-02  1.232745E-01  4.692856E-02
    27.0000  6.206146E-02  1.137500E-01  1.850584E-01  5.203264E-02
    27.6000  9.399539E-02  1.499557E-01  1.949524E-01  4.420932E-02
    28.2000  1.183201E-01  2.456796E-01  3.055037E-01  5.202036E-02
    28.8000  3.634851E-02  2.061221E-01  3.057840E-01  5.632424E-02
    29.4000  1.580492E-02  1.422339E-01  3.230346E-01  7.367247E-02
    30.0000  4.935141E-03  7.161594E-02  1.438789E-01  4.633697E-02
