#  Fermi level (eV): -11.430
#  Charge transfer :  -0.135
#    Electron counts for each orbital momentum:
#       0      1.846
#       1      4.193
#       2      0.089
#       3      0.000
#  Number of atoms in cluster: 184
#  Lorentzian broadening with HWHH     0.1000 eV
# -----------------------------------------------------------------------
#      e        sDOS           pDOS          dDOS          fDOS    @#
   -30.0000  2.892212E-01  9.858268E-04  1.209855E-04  8.747958E-05
   -29.5500  6.877514E-02  1.014690E-03  1.190121E-04  6.776102E-05
   -29.1000  3.049817E-02  1.078189E-03  1.207442E-04  6.506145E-05
   -28.6500  1.721294E-02  1.154475E-03  1.231132E-04  6.469185E-05
   -28.2000  1.106266E-02  1.241796E-03  1.257653E-04  6.500745E-05
   -27.7500  7.715510E-03  1.341024E-03  1.286323E-04  6.562056E-05
   -27.3000  5.693106E-03  1.453859E-03  1.316721E-04  6.638160E-05
   -26.8500  4.378374E-03  1.582817E-03  1.349172E-04  6.725877E-05
   -26.4000  3.475946E-03  1.731064E-03  1.383804E-04  6.823000E-05
   -25.9500  2.829984E-03  1.902489E-03  1.420265E-04  6.924744E-05
   -25.5000  2.352244E-03  2.102710E-03  1.459906E-04  7.038657E-05
   -25.0500  1.989164E-03  2.338212E-03  1.501895E-04  7.157135E-05
   -24.6000  1.707215E-03  2.618135E-03  1.546689E-04  7.281338E-05
   -24.1500  1.484349E-03  2.955109E-03  1.595271E-04  7.415444E-05
   -23.7000  1.305809E-03  3.367002E-03  1.649737E-04  7.571096E-05
   -23.2500  1.160812E-03  3.875475E-03  1.706211E-04  7.718608E-05
   -22.8000  1.042686E-03  4.520111E-03  1.772323E-04  7.903955E-05
   -22.3500  9.460833E-04  5.353226E-03  1.846788E-04  8.112550E-05
   -21.9000  8.675203E-04  6.458789E-03  1.928267E-04  8.327079E-05
   -21.4500  8.055795E-04  7.985046E-03  2.025145E-04  8.586796E-05
   -21.0000  7.612370E-04  1.019481E-02  2.138131E-04  8.874291E-05
   -20.5500  7.425290E-04  1.370718E-02  2.314688E-04  9.426759E-05
   -20.1000  7.906617E-04  2.006552E-02  2.490217E-04  9.619436E-05
   -19.6500  1.878456E-03  5.117954E-02  4.191124E-04  1.479027E-04
   -19.2000  1.627694E-03  2.894679E-02  2.493865E-04  5.196407E-05
   -18.7500 -1.897990E-03 -5.123367E-01 -7.612931E-03 -7.543414E-04
   -18.3000  1.324138E-02  1.255256E+00  2.165922E-03  7.399638E-04
   -17.8500  7.033109E-03  7.926443E-01  1.158618E-03  3.597412E-04
   -17.4000  3.462583E-03  1.146708E+00  1.656506E-03  4.040985E-04
   -16.9500  1.965322E-03  2.177928E+00  3.978967E-03  9.549820E-04
   -16.5000  1.476924E-03  2.422654E+00  4.903535E-03  9.084495E-04
   -16.0500  7.329427E-04  2.311737E-01  8.787801E-04  2.337414E-04
   -15.6000  1.046478E-02  1.184995E+00  7.931909E-04  9.609842E-05
   -15.1500  6.533711E-04  4.232210E-02  7.723533E-04  2.133992E-04
   -14.7000  7.051622E-04  2.822360E-02  1.003282E-03  2.563121E-04
   -14.2500  8.176889E-04  2.213253E-02  1.540515E-03  3.444928E-04
   -13.8000  1.039856E-03  2.153998E-02  3.286584E-03  5.694033E-04
   -13.3500  1.685595E-03  3.983592E-02  1.970237E-02  1.825363E-03
   -12.9000  4.795238E-03  1.079878E-01  5.522722E-02  7.566763E-03
   -12.4500  9.863688E-03  1.749135E-01  6.204767E-02  1.727337E-02
   -12.0000  3.963987E-02  2.145454E-01  2.309919E-02  1.245058E-02
   -11.5500  4.639361E-02  2.576226E-01  1.871837E-02  1.312755E-02
   -11.1000  1.894115E-02  5.060330E-01  1.760703E-02  8.035238E-03
   -10.6500  7.878277E-03  3.037944E-01  6.818761E-03  2.526388E-03
   -10.2000  1.276366E-02  1.141332E-01  2.109129E-03  7.599419E-04
    -9.7500  1.927663E-02  6.318558E-02  1.575405E-03  4.676092E-04
    -9.3000  2.520123E-02  6.328778E-02  1.692095E-03  4.029659E-04
    -8.8500  2.342734E-02  6.815830E-02  2.081510E-03  3.994974E-04
    -8.4000  7.169125E-03  5.164907E-02  6.732290E-03  7.866298E-04
    -7.9500  2.986520E-02  8.661977E-02  5.198582E-03  5.069870E-04
    -7.5000  3.885113E-02  8.540398E-02  8.059342E-03  6.071051E-04
    -7.0500  3.243113E-02  9.705424E-02  8.960810E-03  6.764677E-04
    -6.6000  2.016965E-02  9.940927E-02  9.740650E-03  7.123290E-04
    -6.1500  1.397635E-02  8.633864E-02  1.439855E-02  8.448244E-04
    -5.7000  1.141551E-02  8.712215E-02  1.293702E-02  8.014107E-04
    -5.2500  1.227332E-02  1.061741E-01  1.277778E-02  8.467696E-04
    -4.8000  1.108077E-02  1.217231E-01  3.390672E-02  1.467168E-03
    -4.3500  1.752311E-02  1.580115E-01  2.733921E-02  1.387005E-03
    -3.9000  1.049124E-02  1.449886E-01  3.457608E-02  1.661506E-03
    -3.4500  8.248637E-03  8.184588E-02  2.695802E-02  1.428564E-03
    -3.0000  8.542196E-03  6.905991E-02  2.505291E-02  1.509761E-03
    -2.5500  1.014085E-02  8.627628E-02  3.048180E-02  1.866730E-03
    -2.1000  1.221467E-02  1.244259E-01  4.618777E-02  2.766344E-03
    -1.6500  1.049330E-02  1.281081E-01  5.821334E-02  3.582253E-03
    -1.2000  8.147233E-03  1.003446E-01  5.474008E-02  3.543820E-03
    -0.7500  6.585401E-03  7.779852E-02  5.297635E-02  3.380073E-03
    -0.3000  5.832663E-03  6.222999E-02  5.997673E-02  3.474945E-03
     0.1500  5.659570E-03  5.519329E-02  6.980577E-02  4.007761E-03
     0.6000  5.866264E-03  5.515395E-02  6.665088E-02  4.996664E-03
     1.0500  6.385955E-03  5.617521E-02  5.598865E-02  6.085051E-03
     1.5000  7.358778E-03  4.813222E-02  4.655956E-02  5.888341E-03
     1.9500  9.119653E-03  4.101230E-02  4.144125E-02  5.701308E-03
     2.4000  1.363931E-02  5.455933E-02  5.122873E-02  6.324520E-03
     2.8500  1.379198E-02  3.714180E-02  4.050958E-02  7.763911E-03
     3.3000  1.211791E-02  3.674744E-02  4.009231E-02  9.001372E-03
     3.7500  9.317421E-03  3.471673E-02  3.692932E-02  9.146290E-03
     4.2000  7.875060E-03  3.121874E-02  3.397963E-02  8.826192E-03
     4.6500  7.419120E-03  2.811608E-02  3.310028E-02  8.648279E-03
     5.1000  7.481824E-03  2.639741E-02  3.406220E-02  8.751880E-03
     5.5500  8.012118E-03  2.617705E-02  3.644976E-02  9.171493E-03
     6.0000  1.445023E-02  5.222518E-02  6.878192E-02  9.911749E-03
     6.4500  1.114782E-02  2.947885E-02  4.528968E-02  1.092718E-02
     6.9000  1.419373E-02  3.194278E-02  5.130982E-02  1.202725E-02
     7.3500  1.774039E-02  3.416071E-02  5.664252E-02  1.282539E-02
     7.8000  2.063216E-02  3.720207E-02  6.109632E-02  1.347616E-02
     8.2500  2.247878E-02  4.383178E-02  6.598366E-02  1.477168E-02
     8.7000  2.298254E-02  5.066953E-02  6.885540E-02  1.527941E-02
     9.1500  2.245783E-02  5.389080E-02  6.923700E-02  1.399746E-02
     9.6000  2.172395E-02  5.983710E-02  6.895328E-02  1.284314E-02
    10.0500  2.089426E-02  6.557239E-02  7.274347E-02  1.207880E-02
    10.5000  2.014669E-02  7.030635E-02  8.362433E-02  1.179844E-02
    10.9500  1.955570E-02  6.973188E-02  9.764380E-02  1.195889E-02
    11.4000  1.915432E-02  6.390218E-02  1.192436E-01  1.230939E-02
    11.8500  1.902892E-02  5.980272E-02  1.589596E-01  1.248276E-02
    12.3000  1.896034E-02  5.918324E-02  1.807061E-01  1.265220E-02
    12.7500  1.865922E-02  5.796937E-02  1.688030E-01  1.305136E-02
    13.2000  1.792308E-02  5.828540E-02  1.626455E-01  1.351141E-02
    13.6500  1.699285E-02  6.362582E-02  1.687375E-01  1.408242E-02
    14.1000  1.604026E-02  7.429827E-02  1.773136E-01  1.491724E-02
    14.5500  1.515102E-02  8.614278E-02  1.801599E-01  1.612525E-02
    15.0000  1.501040E-02  9.066446E-02  1.762426E-01  1.768258E-02
